Filepath	C:\Chromel\data\Data\2023\2023 W36.SEQ\UV_VIS_3.CHL\22666.acd
Channel	UV_VIS_3

Sample Information:
Datasource	INDIA_local
Sequence	Data\2023\2023 W36.SEQ
Sample	dbco593_4
Sample Number	75
Sample Position	RC3
Sample ID	22666
Comment	JL0001_68h_1
QNT method	Method default
PGM file	5-100% positive extended MS-range 500-2000
Type	unknown
Status	finished
Date	9/5/2023
Time	3:48:23 PM
Injection Volume (µl)	12.00
Dilution Factor	1.000000
Amount	10.000000
Weight	10.000000

Raw Data Header Information:
Time Min. (min)	0.000
Time Max. (min)	3.000
Raw-Time Min. (min)	0.000
Raw-Time Max. (min)	3.000
Data Points	1801
Detector	DAD3000.dll
Preferred Read Mode	Unknown
Write Mode	Unknown
Data System	Chromeleon
Version High	06
Version Low	80
Build No.	3984
File Format Version	11
Generation Type	8
File ID	239054205
File Status	16
GUID	9e7c585c-4bf2-11ee-9d37-bcee7b8beccc
Signal Factor	0.000010
Signal Dimension	mAU
Signal Unit	Absorbance
Signal Min.	-6.10154
Signal Max.	361.246830
Channel Name	UV_VIS_3
Driver Name	DAD-3000(RS) Detector
Min. Step	10
Max. Step	10
Average Step	10

Signal Parameter Information:
Signal Info	WVL:280 nm
Wavelength	280.0 nm
Bandwidth	4 nm
RefWavelength	0.0 nm
RefBandwidth	1 nm
	 

















Raw Data:
Time(min)	Step(sec)	Value(mAU)
0.000167	0.00	0.000000	
0.001833	0.10	-0.000030	
0.003500	0.10	-0.000520	
0.005167	0.10	-0.002460	
0.006833	0.10	-0.006770	
0.008500	0.10	-0.012710	
0.010167	0.10	-0.017900	
0.011833	0.10	-0.019970	
0.013500	0.10	-0.017740	
0.015167	0.10	-0.011160	
0.016833	0.10	-0.000990	
0.018500	0.10	0.011450	
0.020167	0.10	0.023960	
0.021833	0.10	0.033820	
0.023500	0.10	0.039250	
0.025167	0.10	0.039830	
0.026833	0.10	0.036490	
0.028500	0.10	0.031770	
0.030167	0.10	0.028740	
0.031833	0.10	0.028970	
0.033500	0.10	0.032210	
0.035167	0.10	0.037070	
0.036833	0.10	0.041100	
0.038500	0.10	0.041380	
0.040167	0.10	0.036200	
0.041833	0.10	0.026610	
0.043500	0.10	0.015820	
0.045167	0.10	0.006780	
0.046833	0.10	0.000760	
0.048500	0.10	-0.002600	
0.050167	0.10	-0.004620	
0.051833	0.10	-0.005880	
0.053500	0.10	-0.005660	
0.055167	0.10	-0.003830	
0.056833	0.10	-0.001930	
0.058500	0.10	-0.001230	
0.060167	0.10	-0.000870	
0.061833	0.10	0.001060	
0.063500	0.10	0.005330	
0.065167	0.10	0.010800	
0.066833	0.10	0.015300	
0.068500	0.10	0.016560	
0.070167	0.10	0.013550	
0.071833	0.10	0.007250	
0.073500	0.10	0.000010	
0.075167	0.10	-0.006180	
0.076833	0.10	-0.010730	
0.078500	0.10	-0.014140	
0.080167	0.10	-0.017100	
0.081833	0.10	-0.019710	
0.083500	0.10	-0.021290	
0.085167	0.10	-0.021370	
0.086833	0.10	-0.020900	
0.088500	0.10	-0.021700	
0.090167	0.10	-0.024700	
0.091833	0.10	-0.029020	
0.093500	0.10	-0.032570	
0.095167	0.10	-0.033510	
0.096833	0.10	-0.031790	
0.098500	0.10	-0.028680	
0.100167	0.10	-0.025210	
0.101833	0.10	-0.022100	
0.103500	0.10	-0.020300	
0.105167	0.10	-0.020590	
0.106833	0.10	-0.023120	
0.108500	0.10	-0.027540	
0.110167	0.10	-0.032870	
0.111833	0.10	-0.037510	
0.113500	0.10	-0.040320	
0.115167	0.10	-0.041550	
0.116833	0.10	-0.042380	
0.118500	0.10	-0.043780	
0.120167	0.10	-0.045550	
0.121833	0.10	-0.046580	
0.123500	0.10	-0.046300	
0.125167	0.10	-0.045450	
0.126833	0.10	-0.045290	
0.128500	0.10	-0.046400	
0.130167	0.10	-0.048120	
0.131833	0.10	-0.049310	
0.133500	0.10	-0.049730	
0.135167	0.10	-0.050190	
0.136833	0.10	-0.051440	
0.138500	0.10	-0.053050	
0.140167	0.10	-0.053730	
0.141833	0.10	-0.052440	
0.143500	0.10	-0.049060	
0.145167	0.10	-0.044450	
0.146833	0.10	-0.040040	
0.148500	0.10	-0.036730	
0.150167	0.10	-0.034830	
0.151833	0.10	-0.034640	
0.153500	0.10	-0.035780	
0.155167	0.10	-0.036640	
0.156833	0.10	-0.036030	
0.158500	0.10	-0.034620	
0.160167	0.10	-0.034230	
0.161833	0.10	-0.036190	
0.163500	0.10	-0.040810	
0.165167	0.10	-0.049020	
0.166833	0.10	-0.071060	
0.168500	0.10	-0.152770	
0.170167	0.10	-0.419460	
0.171833	0.10	-1.095390	
0.173500	0.10	-2.409060	
0.175167	0.10	-4.308410	
0.176833	0.10	-6.065090	
0.178500	0.10	-6.101540	
0.180167	0.10	-2.447060	
0.181833	0.10	6.178360	
0.183500	0.10	19.296230	
0.185167	0.10	34.442240	
0.186833	0.10	48.049990	
0.188500	0.10	56.913750	
0.190167	0.10	59.360040	
0.191833	0.10	55.613880	
0.193500	0.10	47.425250	
0.195167	0.10	37.299140	
0.196833	0.10	27.665270	
0.198500	0.10	20.258500	
0.200167	0.10	15.873810	
0.201833	0.10	14.481590	
0.203500	0.10	15.543850	
0.205167	0.10	18.346580	
0.206833	0.10	22.231270	
0.208500	0.10	26.698040	
0.210167	0.10	31.411800	
0.211833	0.10	36.158080	
0.213500	0.10	40.786790	
0.215167	0.10	45.166880	
0.216833	0.10	49.160270	
0.218500	0.10	52.615620	
0.220167	0.10	55.379220	
0.221833	0.10	57.317590	
0.223500	0.10	58.341730	
0.225167	0.10	58.421320	
0.226833	0.10	57.583980	
0.228500	0.10	55.902920	
0.230167	0.10	53.481930	
0.231833	0.10	50.444880	
0.233500	0.10	46.928670	
0.235167	0.10	43.077080	
0.236833	0.10	39.034760	
0.238500	0.10	34.942360	
0.240167	0.10	30.931860	
0.241833	0.10	27.120220	
0.243500	0.10	23.600430	
0.245167	0.10	20.434340	
0.246833	0.10	17.651300	
0.248500	0.10	15.252620	
0.250167	0.10	13.218290	
0.251833	0.10	11.513900	
0.253500	0.10	10.097600	
0.255167	0.10	8.926520	
0.256833	0.10	7.960920	
0.258500	0.10	7.166730	
0.260167	0.10	6.516650	
0.261833	0.10	5.989830	
0.263500	0.10	5.570630	
0.265167	0.10	5.247190	
0.266833	0.10	5.009970	
0.268500	0.10	4.851210	
0.270167	0.10	4.764150	
0.271833	0.10	4.742510	
0.273500	0.10	4.780020	
0.275167	0.10	4.869400	
0.276833	0.10	5.001740	
0.278500	0.10	5.167820	
0.280167	0.10	5.359720	
0.281833	0.10	5.570000	
0.283500	0.10	5.790740	
0.285167	0.10	6.014060	
0.286833	0.10	6.232500	
0.288500	0.10	6.438940	
0.290167	0.10	6.626640	
0.291833	0.10	6.789350	
0.293500	0.10	6.922330	
0.295167	0.10	7.023690	
0.296833	0.10	7.093750	
0.298500	0.10	7.132630	
0.300167	0.10	7.139330	
0.301833	0.10	7.112790	
0.303500	0.10	7.053010	
0.305167	0.10	6.960670	
0.306833	0.10	6.836510	
0.308500	0.10	6.681730	
0.310167	0.10	6.498790	
0.311833	0.10	6.290740	
0.313500	0.10	6.059710	
0.315167	0.10	5.806860	
0.316833	0.10	5.534100	
0.318500	0.10	5.245050	
0.320167	0.10	4.944100	
0.321833	0.10	4.635070	
0.323500	0.10	4.321900	
0.325167	0.10	4.009650	
0.326833	0.10	3.703430	
0.328500	0.10	3.406370	
0.330167	0.10	3.119190	
0.331833	0.10	2.841690	
0.333500	0.10	2.574290	
0.335167	0.10	2.318610	
0.336833	0.10	2.077030	
0.338500	0.10	1.850990	
0.340167	0.10	1.639840	
0.341833	0.10	1.442090	
0.343500	0.10	1.257350	
0.345167	0.10	1.086390	
0.346833	0.10	0.929840	
0.348500	0.10	0.788020	
0.350167	0.10	0.661520	
0.351833	0.10	0.550760	
0.353500	0.10	0.454330	
0.355167	0.10	0.369160	
0.356833	0.10	0.292940	
0.358500	0.10	0.225250	
0.360167	0.10	0.166250	
0.361833	0.10	0.115670	
0.363500	0.10	0.072920	
0.365167	0.10	0.036990	
0.366833	0.10	0.006410	
0.368500	0.10	-0.020340	
0.370167	0.10	-0.044580	
0.371833	0.10	-0.066930	
0.373500	0.10	-0.086590	
0.375167	0.10	-0.102010	
0.376833	0.10	-0.112610	
0.378500	0.10	-0.118780	
0.380167	0.10	-0.120930	
0.381833	0.10	-0.119780	
0.383500	0.10	-0.116950	
0.385167	0.10	-0.114330	
0.386833	0.10	-0.113420	
0.388500	0.10	-0.115000	
0.390167	0.10	-0.118670	
0.391833	0.10	-0.123010	
0.393500	0.10	-0.126380	
0.395167	0.10	-0.127770	
0.396833	0.10	-0.127610	
0.398500	0.10	-0.127670	
0.400167	0.10	-0.129260	
0.401833	0.10	-0.131590	
0.403500	0.10	-0.132810	
0.405167	0.10	-0.132390	
0.406833	0.10	-0.131160	
0.408500	0.10	-0.129680	
0.410167	0.10	-0.127850	
0.411833	0.10	-0.125540	
0.413500	0.10	-0.123300	
0.415167	0.10	-0.122560	
0.416833	0.10	-0.124440	
0.418500	0.10	-0.128250	
0.420167	0.10	-0.131750	
0.421833	0.10	-0.133050	
0.423500	0.10	-0.132290	
0.425167	0.10	-0.131360	
0.426833	0.10	-0.131830	
0.428500	0.10	-0.133500	
0.430167	0.10	-0.134550	
0.431833	0.10	-0.133420	
0.433500	0.10	-0.130810	
0.435167	0.10	-0.128890	
0.436833	0.10	-0.128400	
0.438500	0.10	-0.127630	
0.440167	0.10	-0.124440	
0.441833	0.10	-0.118060	
0.443500	0.10	-0.109690	
0.445167	0.10	-0.101790	
0.446833	0.10	-0.096230	
0.448500	0.10	-0.093320	
0.450167	0.10	-0.092610	
0.451833	0.10	-0.093400	
0.453500	0.10	-0.094710	
0.455167	0.10	-0.095540	
0.456833	0.10	-0.095470	
0.458500	0.10	-0.094770	
0.460167	0.10	-0.094190	
0.461833	0.10	-0.094650	
0.463500	0.10	-0.096580	
0.465167	0.10	-0.099600	
0.466833	0.10	-0.102810	
0.468500	0.10	-0.105360	
0.470167	0.10	-0.107100	
0.471833	0.10	-0.108710	
0.473500	0.10	-0.110800	
0.475167	0.10	-0.113360	
0.476833	0.10	-0.115750	
0.478500	0.10	-0.117160	
0.480167	0.10	-0.117370	
0.481833	0.10	-0.116630	
0.483500	0.10	-0.114900	
0.485167	0.10	-0.111680	
0.486833	0.10	-0.107090	
0.488500	0.10	-0.101900	
0.490167	0.10	-0.096710	
0.491833	0.10	-0.092240	
0.493500	0.10	-0.089480	
0.495167	0.10	-0.088930	
0.496833	0.10	-0.090240	
0.498500	0.10	-0.092270	
0.500167	0.10	-0.093660	
0.501833	0.10	-0.093800	
0.503500	0.10	-0.093350	
0.505167	0.10	-0.093690	
0.506833	0.10	-0.095600	
0.508500	0.10	-0.098380	
0.510167	0.10	-0.100600	
0.511833	0.10	-0.101270	
0.513500	0.10	-0.099850	
0.515167	0.10	-0.095930	
0.516833	0.10	-0.089730	
0.518500	0.10	-0.082570	
0.520167	0.10	-0.076260	
0.521833	0.10	-0.072090	
0.523500	0.10	-0.070160	
0.525167	0.10	-0.069270	
0.526833	0.10	-0.068020	
0.528500	0.10	-0.066350	
0.530167	0.10	-0.065350	
0.531833	0.10	-0.065960	
0.533500	0.10	-0.068630	
0.535167	0.10	-0.073380	
0.536833	0.10	-0.079540	
0.538500	0.10	-0.086060	
0.540167	0.10	-0.091690	
0.541833	0.10	-0.094640	
0.543500	0.10	-0.093210	
0.545167	0.10	-0.087890	
0.546833	0.10	-0.081460	
0.548500	0.10	-0.076630	
0.550167	0.10	-0.074380	
0.551833	0.10	-0.074720	
0.553500	0.10	-0.077860	
0.555167	0.10	-0.083840	
0.556833	0.10	-0.091090	
0.558500	0.10	-0.096670	
0.560167	0.10	-0.098840	
0.561833	0.10	-0.098670	
0.563500	0.10	-0.098150	
0.565167	0.10	-0.097740	
0.566833	0.10	-0.096770	
0.568500	0.10	-0.095180	
0.570167	0.10	-0.093250	
0.571833	0.10	-0.090770	
0.573500	0.10	-0.087680	
0.575167	0.10	-0.084860	
0.576833	0.10	-0.083670	
0.578500	0.10	-0.085090	
0.580167	0.10	-0.089120	
0.581833	0.10	-0.094750	
0.583500	0.10	-0.100720	
0.585167	0.10	-0.106310	
0.586833	0.10	-0.111650	
0.588500	0.10	-0.117080	
0.590167	0.10	-0.122050	
0.591833	0.10	-0.125220	
0.593500	0.10	-0.126060	
0.595167	0.10	-0.125850	
0.596833	0.10	-0.126160	
0.598500	0.10	-0.127520	
0.600167	0.10	-0.129300	
0.601833	0.10	-0.130800	
0.603500	0.10	-0.132200	
0.605167	0.10	-0.133960	
0.606833	0.10	-0.135330	
0.608500	0.10	-0.135000	
0.610167	0.10	-0.132990	
0.611833	0.10	-0.130580	
0.613500	0.10	-0.129150	
0.615167	0.10	-0.129680	
0.616833	0.10	-0.132890	
0.618500	0.10	-0.139090	
0.620167	0.10	-0.147510	
0.621833	0.10	-0.156020	
0.623500	0.10	-0.162410	
0.625167	0.10	-0.166010	
0.626833	0.10	-0.167550	
0.628500	0.10	-0.168370	
0.630167	0.10	-0.170020	
0.631833	0.10	-0.173220	
0.633500	0.10	-0.176960	
0.635167	0.10	-0.179340	
0.636833	0.10	-0.179910	
0.638500	0.10	-0.180610	
0.640167	0.10	-0.183750	
0.641833	0.10	-0.189570	
0.643500	0.10	-0.196310	
0.645167	0.10	-0.202080	
0.646833	0.10	-0.206180	
0.648500	0.10	-0.208800	
0.650167	0.10	-0.211040	
0.651833	0.10	-0.214780	
0.653500	0.10	-0.220590	
0.655167	0.10	-0.226690	
0.656833	0.10	-0.231100	
0.658500	0.10	-0.234000	
0.660167	0.10	-0.237170	
0.661833	0.10	-0.242000	
0.663500	0.10	-0.248350	
0.665167	0.10	-0.255390	
0.666833	0.10	-0.262990	
0.668500	0.10	-0.271700	
0.670167	0.10	-0.281340	
0.671833	0.10	-0.290290	
0.673500	0.10	-0.296720	
0.675167	0.10	-0.300360	
0.676833	0.10	-0.302990	
0.678500	0.10	-0.306910	
0.680167	0.10	-0.313520	
0.681833	0.10	-0.322960	
0.683500	0.10	-0.334230	
0.685167	0.10	-0.345770	
0.686833	0.10	-0.356350	
0.688500	0.10	-0.365590	
0.690167	0.10	-0.373500	
0.691833	0.10	-0.379930	
0.693500	0.10	-0.385110	
0.695167	0.10	-0.390230	
0.696833	0.10	-0.396320	
0.698500	0.10	-0.403460	
0.700167	0.10	-0.411920	
0.701833	0.10	-0.422670	
0.703500	0.10	-0.436250	
0.705167	0.10	-0.451590	
0.706833	0.10	-0.466720	
0.708500	0.10	-0.480310	
0.710167	0.10	-0.492300	
0.711833	0.10	-0.503110	
0.713500	0.10	-0.513040	
0.715167	0.10	-0.522770	
0.716833	0.10	-0.533400	
0.718500	0.10	-0.545480	
0.720167	0.10	-0.558500	
0.721833	0.10	-0.571320	
0.723500	0.10	-0.582850	
0.725167	0.10	-0.592920	
0.726833	0.10	-0.602610	
0.728500	0.10	-0.613140	
0.730167	0.10	-0.624700	
0.731833	0.10	-0.636980	
0.733500	0.10	-0.650560	
0.735167	0.10	-0.666480	
0.736833	0.10	-0.685060	
0.738500	0.10	-0.705460	
0.740167	0.10	-0.726270	
0.741833	0.10	-0.746190	
0.743500	0.10	-0.764610	
0.745167	0.10	-0.781200	
0.746833	0.10	-0.795390	
0.748500	0.10	-0.806870	
0.750167	0.10	-0.816330	
0.751833	0.10	-0.825470	
0.753500	0.10	-0.836480	
0.755167	0.10	-0.850500	
0.756833	0.10	-0.867000	
0.758500	0.10	-0.885110	
0.760167	0.10	-0.904940	
0.761833	0.10	-0.927120	
0.763500	0.10	-0.951830	
0.765167	0.10	-0.978570	
0.766833	0.10	-1.006180	
0.768500	0.10	-1.033200	
0.770167	0.10	-1.058440	
0.771833	0.10	-1.081110	
0.773500	0.10	-1.100650	
0.775167	0.10	-1.117050	
0.776833	0.10	-1.130840	
0.778500	0.10	-1.142620	
0.780167	0.10	-1.153550	
0.781833	0.10	-1.165890	
0.783500	0.10	-1.182020	
0.785167	0.10	-1.203050	
0.786833	0.10	-1.228290	
0.788500	0.10	-1.255710	
0.790167	0.10	-1.283320	
0.791833	0.10	-1.310040	
0.793500	0.10	-1.334810	
0.795167	0.10	-1.355960	
0.796833	0.10	-1.372460	
0.798500	0.10	-1.385570	
0.800167	0.10	-1.398740	
0.801833	0.10	-1.415410	
0.803500	0.10	-1.436780	
0.805167	0.10	-1.461700	
0.806833	0.10	-1.488290	
0.808500	0.10	-1.514910	
0.810167	0.10	-1.540430	
0.811833	0.10	-1.564400	
0.813500	0.10	-1.587390	
0.815167	0.10	-1.610430	
0.816833	0.10	-1.633740	
0.818500	0.10	-1.656370	
0.820167	0.10	-1.677690	
0.821833	0.10	-1.698480	
0.823500	0.10	-1.720130	
0.825167	0.10	-1.743350	
0.826833	0.10	-1.768070	
0.828500	0.10	-1.794120	
0.830167	0.10	-1.821310	
0.831833	0.10	-1.848500	
0.833500	0.10	-1.873780	
0.835167	0.10	-1.895480	
0.836833	0.10	-1.913490	
0.838500	0.10	-1.929770	
0.840167	0.10	-1.946760	
0.841833	0.10	-1.965230	
0.843500	0.10	-1.984630	
0.845167	0.10	-2.004870	
0.846833	0.10	-2.026540	
0.848500	0.10	-2.049840	
0.850167	0.10	-2.073970	
0.851833	0.10	-2.097960	
0.853500	0.10	-2.121390	
0.855167	0.10	-2.143990	
0.856833	0.10	-2.165410	
0.858500	0.10	-2.185910	
0.860167	0.10	-2.206150	
0.861833	0.10	-2.226730	
0.863500	0.10	-2.248520	
0.865167	0.10	-2.272410	
0.866833	0.10	-2.297700	
0.868500	0.10	-2.322550	
0.870167	0.10	-2.346130	
0.871833	0.10	-2.368920	
0.873500	0.10	-2.391290	
0.875167	0.10	-2.413070	
0.876833	0.10	-2.433830	
0.878500	0.10	-2.453210	
0.880167	0.10	-2.471370	
0.881833	0.10	-2.489040	
0.883500	0.10	-2.506750	
0.885167	0.10	-2.524360	
0.886833	0.10	-2.541260	
0.888500	0.10	-2.557070	
0.890167	0.10	-2.572550	
0.891833	0.10	-2.589740	
0.893500	0.10	-2.610410	
0.895167	0.10	-2.634330	
0.896833	0.10	-2.658550	
0.898500	0.10	-2.679110	
0.900167	0.10	-2.694450	
0.901833	0.10	-2.706820	
0.903500	0.10	-2.719490	
0.905167	0.10	-2.734070	
0.906833	0.10	-2.750150	
0.908500	0.10	-2.766540	
0.910167	0.10	-2.782530	
0.911833	0.10	-2.798070	
0.913500	0.10	-2.813390	
0.915167	0.10	-2.828970	
0.916833	0.10	-2.845540	
0.918500	0.10	-2.863960	
0.920167	0.10	-2.884360	
0.921833	0.10	-2.905620	
0.923500	0.10	-2.925840	
0.925167	0.10	-2.943780	
0.926833	0.10	-2.959850	
0.928500	0.10	-2.975180	
0.930167	0.10	-2.990130	
0.931833	0.10	-3.004330	
0.933500	0.10	-3.017990	
0.935167	0.10	-3.031930	
0.936833	0.10	-3.046040	
0.938500	0.10	-3.058990	
0.940167	0.10	-3.069840	
0.941833	0.10	-3.078990	
0.943500	0.10	-3.087460	
0.945167	0.10	-3.096300	
0.946833	0.10	-3.106810	
0.948500	0.10	-3.119840	
0.950167	0.10	-3.134510	
0.951833	0.10	-3.148620	
0.953500	0.10	-3.160430	
0.955167	0.10	-3.169610	
0.956833	0.10	-3.176570	
0.958500	0.10	-3.181610	
0.960167	0.10	-3.185310	
0.961833	0.10	-3.189440	
0.963500	0.10	-3.196540	
0.965167	0.10	-3.207980	
0.966833	0.10	-3.222940	
0.968500	0.10	-3.239910	
0.970167	0.10	-3.258170	
0.971833	0.10	-3.277240	
0.973500	0.10	-3.296180	
0.975167	0.10	-3.314030	
0.976833	0.10	-3.330030	
0.978500	0.10	-3.343280	
0.980167	0.10	-3.352950	
0.981833	0.10	-3.358720	
0.983500	0.10	-3.361050	
0.985167	0.10	-3.361860	
0.986833	0.10	-3.364540	
0.988500	0.10	-3.371390	
0.990167	0.10	-3.381360	
0.991833	0.10	-3.391010	
0.993500	0.10	-3.397580	
0.995167	0.10	-3.400820	
0.996833	0.10	-3.402900	
0.998500	0.10	-3.407090	
1.000167	0.10	-3.415010	
1.001833	0.10	-3.424670	
1.003500	0.10	-3.432440	
1.005167	0.10	-3.436850	
1.006833	0.10	-3.439620	
1.008500	0.10	-3.442560	
1.010167	0.10	-3.444970	
1.011833	0.10	-3.444640	
1.013500	0.10	-3.441380	
1.015167	0.10	-3.438570	
1.016833	0.10	-3.440790	
1.018500	0.10	-3.449970	
1.020167	0.10	-3.464620	
1.021833	0.10	-3.481800	
1.023500	0.10	-3.498480	
1.025167	0.10	-3.512010	
1.026833	0.10	-3.520640	
1.028500	0.10	-3.524280	
1.030167	0.10	-3.524420	
1.031833	0.10	-3.523110	
1.033500	0.10	-3.522200	
1.035167	0.10	-3.523190	
1.036833	0.10	-3.526160	
1.038500	0.10	-3.529110	
1.040167	0.10	-3.529680	
1.041833	0.10	-3.526740	
1.043500	0.10	-3.520070	
1.045167	0.10	-3.510190	
1.046833	0.10	-3.499090	
1.048500	0.10	-3.489710	
1.050167	0.10	-3.484300	
1.051833	0.10	-3.482840	
1.053500	0.10	-3.483110	
1.055167	0.10	-3.482500	
1.056833	0.10	-3.480000	
1.058500	0.10	-3.476110	
1.060167	0.10	-3.471600	
1.061833	0.10	-3.466880	
1.063500	0.10	-3.462320	
1.065167	0.10	-3.458410	
1.066833	0.10	-3.456320	
1.068500	0.10	-3.457740	
1.070167	0.10	-3.462860	
1.071833	0.10	-3.469510	
1.073500	0.10	-3.474520	
1.075167	0.10	-3.475410	
1.076833	0.10	-3.471330	
1.078500	0.10	-3.463890	
1.080167	0.10	-3.456170	
1.081833	0.10	-3.450170	
1.083500	0.10	-3.445550	
1.085167	0.10	-3.440770	
1.086833	0.10	-3.434950	
1.088500	0.10	-3.428480	
1.090167	0.10	-3.422050	
1.091833	0.10	-3.415340	
1.093500	0.10	-3.406690	
1.095167	0.10	-3.394690	
1.096833	0.10	-3.380290	
1.098500	0.10	-3.366520	
1.100167	0.10	-3.355600	
1.101833	0.10	-3.347430	
1.103500	0.10	-3.340580	
1.105167	0.10	-3.333860	
1.106833	0.10	-3.327090	
1.108500	0.10	-3.321140	
1.110167	0.10	-3.316860	
1.111833	0.10	-3.313710	
1.113500	0.10	-3.309810	
1.115167	0.10	-3.303330	
1.116833	0.10	-3.293960	
1.118500	0.10	-3.283470	
1.120167	0.10	-3.274390	
1.121833	0.10	-3.267990	
1.123500	0.10	-3.263990	
1.125167	0.10	-3.261340	
1.126833	0.10	-3.258880	
1.128500	0.10	-3.255710	
1.130167	0.10	-3.251300	
1.131833	0.10	-3.245440	
1.133500	0.10	-3.238390	
1.135167	0.10	-3.230290	
1.136833	0.10	-3.220370	
1.138500	0.10	-3.208000	
1.140167	0.10	-3.193930	
1.141833	0.10	-3.179460	
1.143500	0.10	-3.165520	
1.145167	0.10	-3.152690	
1.146833	0.10	-3.140830	
1.148500	0.10	-3.129290	
1.150167	0.10	-3.118110	
1.151833	0.10	-3.107710	
1.153500	0.10	-3.097730	
1.155167	0.10	-3.087550	
1.156833	0.10	-3.076910	
1.158500	0.10	-3.065570	
1.160167	0.10	-3.053180	
1.161833	0.10	-3.039970	
1.163500	0.10	-3.026770	
1.165167	0.10	-3.014060	
1.166833	0.10	-3.001580	
1.168500	0.10	-2.989040	
1.170167	0.10	-2.976890	
1.171833	0.10	-2.966170	
1.173500	0.10	-2.957850	
1.175167	0.10	-2.952220	
1.176833	0.10	-2.948630	
1.178500	0.10	-2.945460	
1.180167	0.10	-2.940660	
1.181833	0.10	-2.932880	
1.183500	0.10	-2.922030	
1.185167	0.10	-2.908380	
1.186833	0.10	-2.891670	
1.188500	0.10	-2.871660	
1.190167	0.10	-2.849070	
1.191833	0.10	-2.825910	
1.193500	0.10	-2.804720	
1.195167	0.10	-2.787230	
1.196833	0.10	-2.773850	
1.198500	0.10	-2.763810	
1.200167	0.10	-2.755330	
1.201833	0.10	-2.746290	
1.203500	0.10	-2.734970	
1.205167	0.10	-2.720280	
1.206833	0.10	-2.702000	
1.208500	0.10	-2.681460	
1.210167	0.10	-2.661250	
1.211833	0.10	-2.643040	
1.213500	0.10	-2.626570	
1.215167	0.10	-2.611290	
1.216833	0.10	-2.597370	
1.218500	0.10	-2.584500	
1.220167	0.10	-2.571210	
1.221833	0.10	-2.556260	
1.223500	0.10	-2.539890	
1.225167	0.10	-2.523630	
1.226833	0.10	-2.508500	
1.228500	0.10	-2.493880	
1.230167	0.10	-2.478490	
1.231833	0.10	-2.462110	
1.233500	0.10	-2.445540	
1.235167	0.10	-2.428990	
1.236833	0.10	-2.411530	
1.238500	0.10	-2.392500	
1.240167	0.10	-2.372450	
1.241833	0.10	-2.352600	
1.243500	0.10	-2.333720	
1.245167	0.10	-2.315180	
1.246833	0.10	-2.295470	
1.248500	0.10	-2.273900	
1.250167	0.10	-2.251470	
1.251833	0.10	-2.229700	
1.253500	0.10	-2.209280	
1.255167	0.10	-2.190360	
1.256833	0.10	-2.173160	
1.258500	0.10	-2.157190	
1.260167	0.10	-2.140920	
1.261833	0.10	-2.123540	
1.263500	0.10	-2.106460	
1.265167	0.10	-2.091290	
1.266833	0.10	-2.076840	
1.268500	0.10	-2.059880	
1.270167	0.10	-2.038750	
1.271833	0.10	-2.014400	
1.273500	0.10	-1.988210	
1.275167	0.10	-1.960400	
1.276833	0.10	-1.930730	
1.278500	0.10	-1.899710	
1.280167	0.10	-1.868420	
1.281833	0.10	-1.837350	
1.283500	0.10	-1.806030	
1.285167	0.10	-1.773250	
1.286833	0.10	-1.737750	
1.288500	0.10	-1.699220	
1.290167	0.10	-1.658470	
1.291833	0.10	-1.617290	
1.293500	0.10	-1.578240	
1.295167	0.10	-1.543810	
1.296833	0.10	-1.515000	
1.298500	0.10	-1.490820	
1.300167	0.10	-1.468760	
1.301833	0.10	-1.445740	
1.303500	0.10	-1.419840	
1.305167	0.10	-1.391360	
1.306833	0.10	-1.361220	
1.308500	0.10	-1.328840	
1.310167	0.10	-1.292720	
1.311833	0.10	-1.252020	
1.313500	0.10	-1.206730	
1.315167	0.10	-1.157220	
1.316833	0.10	-1.103700	
1.318500	0.10	-1.045660	
1.320167	0.10	-0.982050	
1.321833	0.10	-0.912940	
1.323500	0.10	-0.840750	
1.325167	0.10	-0.768940	
1.326833	0.10	-0.698290	
1.328500	0.10	-0.624760	
1.330167	0.10	-0.541850	
1.331833	0.10	-0.444430	
1.333500	0.10	-0.329810	
1.335167	0.10	-0.196450	
1.336833	0.10	-0.043570	
1.338500	0.10	0.127390	
1.340167	0.10	0.311530	
1.341833	0.10	0.501040	
1.343500	0.10	0.687110	
1.345167	0.10	0.861400	
1.346833	0.10	1.015790	
1.348500	0.10	1.142770	
1.350167	0.10	1.237610	
1.351833	0.10	1.300090	
1.353500	0.10	1.334150	
1.355167	0.10	1.346140	
1.356833	0.10	1.343150	
1.358500	0.10	1.331880	
1.360167	0.10	1.318070	
1.361833	0.10	1.306560	
1.363500	0.10	1.302050	
1.365167	0.10	1.309200	
1.366833	0.10	1.331240	
1.368500	0.10	1.368250	
1.370167	0.10	1.418130	
1.371833	0.10	1.479420	
1.373500	0.10	1.552760	
1.375167	0.10	1.640100	
1.376833	0.10	1.743500	
1.378500	0.10	1.864120	
1.380167	0.10	2.001610	
1.381833	0.10	2.154320	
1.383500	0.10	2.320610	
1.385167	0.10	2.501660	
1.386833	0.10	2.705730	
1.388500	0.10	2.954480	
1.390167	0.10	3.291670	
1.391833	0.10	3.791290	
1.393500	0.10	4.556570	
1.395167	0.10	5.705090	
1.396833	0.10	7.344200	
1.398500	0.10	9.544440	
1.400167	0.10	12.317570	
1.401833	0.10	15.604130	
1.403500	0.10	19.273590	
1.405167	0.10	23.136330	
1.406833	0.10	26.962670	
1.408500	0.10	30.504670	
1.410167	0.10	33.520260	
1.411833	0.10	35.799870	
1.413500	0.10	37.192930	
1.415167	0.10	37.628100	
1.416833	0.10	37.122410	
1.418500	0.10	35.777530	
1.420167	0.10	33.762330	
1.421833	0.10	31.285640	
1.423500	0.10	28.565080	
1.425167	0.10	25.798180	
1.426833	0.10	23.142230	
1.428500	0.10	20.705540	
1.430167	0.10	18.547620	
1.431833	0.10	16.686250	
1.433500	0.10	15.109710	
1.435167	0.10	13.789650	
1.436833	0.10	12.691040	
1.438500	0.10	11.778070	
1.440167	0.10	11.017080	
1.441833	0.10	10.378430	
1.443500	0.10	9.837750	
1.445167	0.10	9.376120	
1.446833	0.10	8.979120	
1.448500	0.10	8.635650	
1.450167	0.10	8.337030	
1.451833	0.10	8.076760	
1.453500	0.10	7.850150	
1.455167	0.10	7.653620	
1.456833	0.10	7.484240	
1.458500	0.10	7.338960	
1.460167	0.10	7.214090	
1.461833	0.10	7.106180	
1.463500	0.10	7.013280	
1.465167	0.10	6.934820	
1.466833	0.10	6.870430	
1.468500	0.10	6.819350	
1.470167	0.10	6.780930	
1.471833	0.10	6.755270	
1.473500	0.10	6.742950	
1.475167	0.10	6.743770	
1.476833	0.10	6.755370	
1.478500	0.10	6.773330	
1.480167	0.10	6.793590	
1.481833	0.10	6.815020	
1.483500	0.10	6.839330	
1.485167	0.10	6.868560	
1.486833	0.10	6.903210	
1.488500	0.10	6.943370	
1.490167	0.10	6.990370	
1.491833	0.10	7.045510	
1.493500	0.10	7.108090	
1.495167	0.10	7.175920	
1.496833	0.10	7.247260	
1.498500	0.10	7.321640	
1.500167	0.10	7.399290	
1.501833	0.10	7.481090	
1.503500	0.10	7.568320	
1.505167	0.10	7.661640	
1.506833	0.10	7.760900	
1.508500	0.10	7.866380	
1.510167	0.10	7.979420	
1.511833	0.10	8.101740	
1.513500	0.10	8.234690	
1.515167	0.10	8.379140	
1.516833	0.10	8.535590	
1.518500	0.10	8.703960	
1.520167	0.10	8.882470	
1.521833	0.10	9.066760	
1.523500	0.10	9.251350	
1.525167	0.10	9.432450	
1.526833	0.10	9.608740	
1.528500	0.10	9.780170	
1.530167	0.10	9.946920	
1.531833	0.10	10.108810	
1.533500	0.10	10.265330	
1.535167	0.10	10.415940	
1.536833	0.10	10.560650	
1.538500	0.10	10.700580	
1.540167	0.10	10.837650	
1.541833	0.10	10.973250	
1.543500	0.10	11.107740	
1.545167	0.10	11.241510	
1.546833	0.10	11.375490	
1.548500	0.10	11.510690	
1.550167	0.10	11.647930	
1.551833	0.10	11.788570	
1.553500	0.10	11.935430	
1.555167	0.10	12.092500	
1.556833	0.10	12.263230	
1.558500	0.10	12.448860	
1.560167	0.10	12.648120	
1.561833	0.10	12.857990	
1.563500	0.10	13.075580	
1.565167	0.10	13.300090	
1.566833	0.10	13.533170	
1.568500	0.10	13.777380	
1.570167	0.10	14.034560	
1.571833	0.10	14.305820	
1.573500	0.10	14.593320	
1.575167	0.10	14.902960	
1.576833	0.10	15.244980	
1.578500	0.10	15.631270	
1.580167	0.10	16.072370	
1.581833	0.10	16.577030	
1.583500	0.10	17.151740	
1.585167	0.10	17.797910	
1.586833	0.10	18.509150	
1.588500	0.10	19.270810	
1.590167	0.10	20.061970	
1.591833	0.10	20.858890	
1.593500	0.10	21.638400	
1.595167	0.10	22.379650	
1.596833	0.10	23.064820	
1.598500	0.10	23.679780	
1.600167	0.10	24.215920	
1.601833	0.10	24.672940	
1.603500	0.10	25.060980	
1.605167	0.10	25.400820	
1.606833	0.10	25.722860	
1.608500	0.10	26.064230	
1.610167	0.10	26.463120	
1.611833	0.10	26.951030	
1.613500	0.10	27.546860	
1.615167	0.10	28.255860	
1.616833	0.10	29.071220	
1.618500	0.10	29.973950	
1.620167	0.10	30.933120	
1.621833	0.10	31.909780	
1.623500	0.10	32.863670	
1.625167	0.10	33.759160	
1.626833	0.10	34.569410	
1.628500	0.10	35.279030	
1.630167	0.10	35.884060	
1.631833	0.10	36.390080	
1.633500	0.10	36.811030	
1.635167	0.10	37.168680	
1.636833	0.10	37.491160	
1.638500	0.10	37.810510	
1.640167	0.10	38.160000	
1.641833	0.10	38.570860	
1.643500	0.10	39.068940	
1.645167	0.10	39.672290	
1.646833	0.10	40.390560	
1.648500	0.10	41.225300	
1.650167	0.10	42.170610	
1.651833	0.10	43.215110	
1.653500	0.10	44.346070	
1.655167	0.10	45.554590	
1.656833	0.10	46.840040	
1.658500	0.10	48.212420	
1.660167	0.10	49.690410	
1.661833	0.10	51.294490	
1.663500	0.10	53.038820	
1.665167	0.10	54.925330	
1.666833	0.10	56.940360	
1.668500	0.10	59.053270	
1.670167	0.10	61.218730	
1.671833	0.10	63.383120	
1.673500	0.10	65.491370	
1.675167	0.10	67.491380	
1.676833	0.10	69.337540	
1.678500	0.10	70.995840	
1.680167	0.10	72.448820	
1.681833	0.10	73.698250	
1.683500	0.10	74.764890	
1.685167	0.10	75.685010	
1.686833	0.10	76.505380	
1.688500	0.10	77.276860	
1.690167	0.10	78.046040	
1.691833	0.10	78.846990	
1.693500	0.10	79.698250	
1.695167	0.10	80.605660	
1.696833	0.10	81.565410	
1.698500	0.10	82.565520	
1.700167	0.10	83.588270	
1.701833	0.10	84.614140	
1.703500	0.10	85.625200	
1.705167	0.10	86.607180	
1.706833	0.10	87.551680	
1.708500	0.10	88.460120	
1.710167	0.10	89.347160	
1.711833	0.10	90.240640	
1.713500	0.10	91.178970	
1.715167	0.10	92.207930	
1.716833	0.10	93.378020	
1.718500	0.10	94.746580	
1.720167	0.10	96.392730	
1.721833	0.10	98.448080	
1.723500	0.10	101.133130	
1.725167	0.10	104.780650	
1.726833	0.10	109.830090	
1.728500	0.10	116.785340	
1.730167	0.10	126.137730	
1.731833	0.10	138.269650	
1.733500	0.10	153.366790	
1.735167	0.10	171.367450	
1.736833	0.10	191.958030	
1.738500	0.10	214.598180	
1.740167	0.10	238.551380	
1.741833	0.10	262.914640	
1.743500	0.10	286.658600	
1.745167	0.10	308.690730	
1.746833	0.10	327.941850	
1.748500	0.10	343.457830	
1.750167	0.10	354.476790	
1.751833	0.10	360.484350	
1.753500	0.10	361.246830	
1.755167	0.10	356.823110	
1.756833	0.10	347.554710	
1.758500	0.10	334.031240	
1.760167	0.10	317.030490	
1.761833	0.10	297.439380	
1.763500	0.10	276.167980	
1.765167	0.10	254.072240	
1.766833	0.10	231.898740	
1.768500	0.10	210.253980	
1.770167	0.10	189.593700	
1.771833	0.10	170.228950	
1.773500	0.10	152.345290	
1.775167	0.10	136.028640	
1.776833	0.10	121.290450	
1.778500	0.10	108.088410	
1.780167	0.10	96.342910	
1.781833	0.10	85.950640	
1.783500	0.10	76.795540	
1.785167	0.10	68.756660	
1.786833	0.10	61.712790	
1.788500	0.10	55.545550	
1.790167	0.10	50.143160	
1.791833	0.10	45.403980	
1.793500	0.10	41.237320	
1.795167	0.10	37.563160	
1.796833	0.10	34.312730	
1.798500	0.10	31.428620	
1.800167	0.10	28.862590	
1.801833	0.10	26.572440	
1.803500	0.10	24.520430	
1.805167	0.10	22.674070	
1.806833	0.10	21.007520	
1.808500	0.10	19.500950	
1.810167	0.10	18.138110	
1.811833	0.10	16.904330	
1.813500	0.10	15.786740	
1.815167	0.10	14.775240	
1.816833	0.10	13.862250	
1.818500	0.10	13.040990	
1.820167	0.10	12.304130	
1.821833	0.10	11.644270	
1.823500	0.10	11.055760	
1.825167	0.10	10.535300	
1.826833	0.10	10.080330	
1.828500	0.10	9.687370	
1.830167	0.10	9.351320	
1.831833	0.10	9.065040	
1.833500	0.10	8.819310	
1.835167	0.10	8.604770	
1.836833	0.10	8.414310	
1.838500	0.10	8.243130	
1.840167	0.10	8.087550	
1.841833	0.10	7.944430	
1.843500	0.10	7.810350	
1.845167	0.10	7.680510	
1.846833	0.10	7.549640	
1.848500	0.10	7.414470	
1.850167	0.10	7.274260	
1.851833	0.10	7.129130	
1.853500	0.10	6.979120	
1.855167	0.10	6.824570	
1.856833	0.10	6.666820	
1.858500	0.10	6.509050	
1.860167	0.10	6.355670	
1.861833	0.10	6.210530	
1.863500	0.10	6.075730	
1.865167	0.10	5.951230	
1.866833	0.10	5.835400	
1.868500	0.10	5.726790	
1.870167	0.10	5.625530	
1.871833	0.10	5.532540	
1.873500	0.10	5.448100	
1.875167	0.10	5.371780	
1.876833	0.10	5.303730	
1.878500	0.10	5.245030	
1.880167	0.10	5.196530	
1.881833	0.10	5.158380	
1.883500	0.10	5.130330	
1.885167	0.10	5.111610	
1.886833	0.10	5.101040	
1.888500	0.10	5.097620	
1.890167	0.10	5.099870	
1.891833	0.10	5.105140	
1.893500	0.10	5.110270	
1.895167	0.10	5.113000	
1.896833	0.10	5.113030	
1.898500	0.10	5.112460	
1.900167	0.10	5.114630	
1.901833	0.10	5.121480	
1.903500	0.10	5.132410	
1.905167	0.10	5.146250	
1.906833	0.10	5.163250	
1.908500	0.10	5.184710	
1.910167	0.10	5.211930	
1.911833	0.10	5.246400	
1.913500	0.10	5.290540	
1.915167	0.10	5.346780	
1.916833	0.10	5.415530	
1.918500	0.10	5.495130	
1.920167	0.10	5.583900	
1.921833	0.10	5.681120	
1.923500	0.10	5.786070	
1.925167	0.10	5.897010	
1.926833	0.10	6.011870	
1.928500	0.10	6.128780	
1.930167	0.10	6.245280	
1.931833	0.10	6.357880	
1.933500	0.10	6.462520	
1.935167	0.10	6.555060	
1.936833	0.10	6.631850	
1.938500	0.10	6.690210	
1.940167	0.10	6.729050	
1.941833	0.10	6.749450	
1.943500	0.10	6.754270	
1.945167	0.10	6.747710	
1.946833	0.10	6.734020	
1.948500	0.10	6.715030	
1.950167	0.10	6.689260	
1.951833	0.10	6.654420	
1.953500	0.10	6.609990	
1.955167	0.10	6.557240	
1.956833	0.10	6.497580	
1.958500	0.10	6.432110	
1.960167	0.10	6.362690	
1.961833	0.10	6.292230	
1.963500	0.10	6.223080	
1.965167	0.10	6.155760	
1.966833	0.10	6.089510	
1.968500	0.10	6.022730	
1.970167	0.10	5.953250	
1.971833	0.10	5.879270	
1.973500	0.10	5.800000	
1.975167	0.10	5.715200	
1.976833	0.10	5.624780	
1.978500	0.10	5.528610	
1.980167	0.10	5.426160	
1.981833	0.10	5.316710	
1.983500	0.10	5.200350	
1.985167	0.10	5.077980	
1.986833	0.10	4.950860	
1.988500	0.10	4.820090	
1.990167	0.10	4.686930	
1.991833	0.10	4.553330	
1.993500	0.10	4.421800	
1.995167	0.10	4.294280	
1.996833	0.10	4.170870	
1.998500	0.10	4.049800	
2.000167	0.10	3.929450	
2.001833	0.10	3.809470	
2.003500	0.10	3.689930	
2.005167	0.10	3.570700	
2.006833	0.10	3.451660	
2.008500	0.10	3.333170	
2.010167	0.10	3.216660	
2.011833	0.10	3.104810	
2.013500	0.10	3.000860	
2.015167	0.10	2.906910	
2.016833	0.10	2.823110	
2.018500	0.10	2.748660	
2.020167	0.10	2.682820	
2.021833	0.10	2.625260	
2.023500	0.10	2.575840	
2.025167	0.10	2.533920	
2.026833	0.10	2.498010	
2.028500	0.10	2.466240	
2.030167	0.10	2.436810	
2.031833	0.10	2.408370	
2.033500	0.10	2.380460	
2.035167	0.10	2.353780	
2.036833	0.10	2.330090	
2.038500	0.10	2.311070	
2.040167	0.10	2.296510	
2.041833	0.10	2.284130	
2.043500	0.10	2.271530	
2.045167	0.10	2.258060	
2.046833	0.10	2.244320	
2.048500	0.10	2.230600	
2.050167	0.10	2.216460	
2.051833	0.10	2.201670	
2.053500	0.10	2.186220	
2.055167	0.10	2.169570	
2.056833	0.10	2.151130	
2.058500	0.10	2.131480	
2.060167	0.10	2.112870	
2.061833	0.10	2.097910	
2.063500	0.10	2.087200	
2.065167	0.10	2.078770	
2.066833	0.10	2.070080	
2.068500	0.10	2.059960	
2.070167	0.10	2.049230	
2.071833	0.10	2.039670	
2.073500	0.10	2.032020	
2.075167	0.10	2.025230	
2.076833	0.10	2.017820	
2.078500	0.10	2.009240	
2.080167	0.10	1.999820	
2.081833	0.10	1.990570	
2.083500	0.10	1.982740	
2.085167	0.10	1.977300	
2.086833	0.10	1.974380	
2.088500	0.10	1.972720	
2.090167	0.10	1.970120	
2.091833	0.10	1.965560	
2.093500	0.10	1.960040	
2.095167	0.10	1.955300	
2.096833	0.10	1.951970	
2.098500	0.10	1.949450	
2.100167	0.10	1.946690	
2.101833	0.10	1.942920	
2.103500	0.10	1.938050	
2.105167	0.10	1.932130	
2.106833	0.10	1.924860	
2.108500	0.10	1.916400	
2.110167	0.10	1.908050	
2.111833	0.10	1.900870	
2.113500	0.10	1.894620	
2.115167	0.10	1.888330	
2.116833	0.10	1.881240	
2.118500	0.10	1.873660	
2.120167	0.10	1.867280	
2.121833	0.10	1.864380	
2.123500	0.10	1.866430	
2.125167	0.10	1.872990	
2.126833	0.10	1.881610	
2.128500	0.10	1.888970	
2.130167	0.10	1.892720	
2.131833	0.10	1.892710	
2.133500	0.10	1.890530	
2.135167	0.10	1.888090	
2.136833	0.10	1.887090	
2.138500	0.10	1.888690	
2.140167	0.10	1.892480	
2.141833	0.10	1.896310	
2.143500	0.10	1.898070	
2.145167	0.10	1.897370	
2.146833	0.10	1.895260	
2.148500	0.10	1.893050	
2.150167	0.10	1.891710	
2.151833	0.10	1.891510	
2.153500	0.10	1.892040	
2.155167	0.10	1.892540	
2.156833	0.10	1.892240	
2.158500	0.10	1.890890	
2.160167	0.10	1.889680	
2.161833	0.10	1.890430	
2.163500	0.10	1.893580	
2.165167	0.10	1.898070	
2.166833	0.10	1.903060	
2.168500	0.10	1.908370	
2.170167	0.10	1.913070	
2.171833	0.10	1.915450	
2.173500	0.10	1.915090	
2.175167	0.10	1.913650	
2.176833	0.10	1.913330	
2.178500	0.10	1.915130	
2.180167	0.10	1.918500	
2.181833	0.10	1.922130	
2.183500	0.10	1.924660	
2.185167	0.10	1.925130	
2.186833	0.10	1.923470	
2.188500	0.10	1.920370	
2.190167	0.10	1.916650	
2.191833	0.10	1.912950	
2.193500	0.10	1.909960	
2.195167	0.10	1.908060	
2.196833	0.10	1.907050	
2.198500	0.10	1.907100	
2.200167	0.10	1.908970	
2.201833	0.10	1.912530	
2.203500	0.10	1.916350	
2.205167	0.10	1.919190	
2.206833	0.10	1.921190	
2.208500	0.10	1.922920	
2.210167	0.10	1.924180	
2.211833	0.10	1.924390	
2.213500	0.10	1.923240	
2.215167	0.10	1.920930	
2.216833	0.10	1.918570	
2.218500	0.10	1.917640	
2.220167	0.10	1.918910	
2.221833	0.10	1.921850	
2.223500	0.10	1.924840	
2.225167	0.10	1.926030	
2.226833	0.10	1.924360	
2.228500	0.10	1.920200	
2.230167	0.10	1.915330	
2.231833	0.10	1.912200	
2.233500	0.10	1.912450	
2.235167	0.10	1.915860	
2.236833	0.10	1.921090	
2.238500	0.10	1.927090	
2.240167	0.10	1.933480	
2.241833	0.10	1.939950	
2.243500	0.10	1.945820	
2.245167	0.10	1.950660	
2.246833	0.10	1.954700	
2.248500	0.10	1.958490	
2.250167	0.10	1.962020	
2.251833	0.10	1.964970	
2.253500	0.10	1.967320	
2.255167	0.10	1.969520	
2.256833	0.10	1.971760	
2.258500	0.10	1.973690	
2.260167	0.10	1.974780	
2.261833	0.10	1.974850	
2.263500	0.10	1.974530	
2.265167	0.10	1.974950	
2.266833	0.10	1.976800	
2.268500	0.10	1.979770	
2.270167	0.10	1.982940	
2.271833	0.10	1.985740	
2.273500	0.10	1.988690	
2.275167	0.10	1.992600	
2.276833	0.10	1.997400	
2.278500	0.10	2.001730	
2.280167	0.10	2.004030	
2.281833	0.10	2.003960	
2.283500	0.10	2.002280	
2.285167	0.10	1.999280	
2.286833	0.10	1.994810	
2.288500	0.10	1.989710	
2.290167	0.10	1.985820	
2.291833	0.10	1.984370	
2.293500	0.10	1.985530	
2.295167	0.10	1.988850	
2.296833	0.10	1.993470	
2.298500	0.10	1.998400	
2.300167	0.10	2.002440	
2.301833	0.10	2.004530	
2.303500	0.10	2.004540	
2.305167	0.10	2.003130	
2.306833	0.10	2.001290	
2.308500	0.10	2.000340	
2.310167	0.10	2.001230	
2.311833	0.10	2.004060	
2.313500	0.10	2.008540	
2.315167	0.10	2.014350	
2.316833	0.10	2.020750	
2.318500	0.10	2.026350	
2.320167	0.10	2.029790	
2.321833	0.10	2.030840	
2.323500	0.10	2.030390	
2.325167	0.10	2.029530	
2.326833	0.10	2.029100	
2.328500	0.10	2.029490	
2.330167	0.10	2.030720	
2.331833	0.10	2.032380	
2.333500	0.10	2.033550	
2.335167	0.10	2.033250	
2.336833	0.10	2.031320	
2.338500	0.10	2.028650	
2.340167	0.10	2.026620	
2.341833	0.10	2.026730	
2.343500	0.10	2.030200	
2.345167	0.10	2.036650	
2.346833	0.10	2.043850	
2.348500	0.10	2.049410	
2.350167	0.10	2.052670	
2.351833	0.10	2.055150	
2.353500	0.10	2.059210	
2.355167	0.10	2.066090	
2.356833	0.10	2.074950	
2.358500	0.10	2.083450	
2.360167	0.10	2.089510	
2.361833	0.10	2.092440	
2.363500	0.10	2.092950	
2.365167	0.10	2.092500	
2.366833	0.10	2.092530	
2.368500	0.10	2.093690	
2.370167	0.10	2.095700	
2.371833	0.10	2.098020	
2.373500	0.10	2.100330	
2.375167	0.10	2.102370	
2.376833	0.10	2.103870	
2.378500	0.10	2.104700	
2.380167	0.10	2.104800	
2.381833	0.10	2.104500	
2.383500	0.10	2.104790	
2.385167	0.10	2.106860	
2.386833	0.10	2.111430	
2.388500	0.10	2.118390	
2.390167	0.10	2.127010	
2.391833	0.10	2.137050	
2.393500	0.10	2.149230	
2.395167	0.10	2.164120	
2.396833	0.10	2.181370	
2.398500	0.10	2.200210	
2.400167	0.10	2.220510	
2.401833	0.10	2.244010	
2.403500	0.10	2.274200	
2.405167	0.10	2.314810	
2.406833	0.10	2.369380	
2.408500	0.10	2.442660	
2.410167	0.10	2.541630	
2.411833	0.10	2.673950	
2.413500	0.10	2.844360	
2.415167	0.10	3.052240	
2.416833	0.10	3.291810	
2.418500	0.10	3.554090	
2.420167	0.10	3.828570	
2.421833	0.10	4.103380	
2.423500	0.10	4.366300	
2.425167	0.10	4.606260	
2.426833	0.10	4.813690	
2.428500	0.10	4.980090	
2.430167	0.10	5.099100	
2.431833	0.10	5.167970	
2.433500	0.10	5.186820	
2.435167	0.10	5.156600	
2.436833	0.10	5.078440	
2.438500	0.10	4.954460	
2.440167	0.10	4.788590	
2.441833	0.10	4.587170	
2.443500	0.10	4.359010	
2.445167	0.10	4.114560	
2.446833	0.10	3.864340	
2.448500	0.10	3.617300	
2.450167	0.10	3.379830	
2.451833	0.10	3.156390	
2.453500	0.10	2.951040	
2.455167	0.10	2.767430	
2.456833	0.10	2.607230	
2.458500	0.10	2.470050	
2.460167	0.10	2.354830	
2.461833	0.10	2.260100	
2.463500	0.10	2.182800	
2.465167	0.10	2.118700	
2.466833	0.10	2.064220	
2.468500	0.10	2.017500	
2.470167	0.10	1.978220	
2.471833	0.10	1.946870	
2.473500	0.10	1.923940	
2.475167	0.10	1.909630	
2.476833	0.10	1.904980	
2.478500	0.10	1.913010	
2.480167	0.10	1.937470	
2.481833	0.10	1.980130	
2.483500	0.10	2.040100	
2.485167	0.10	2.115490	
2.486833	0.10	2.205130	
2.488500	0.10	2.308850	
2.490167	0.10	2.426280	
2.491833	0.10	2.555320	
2.493500	0.10	2.691570	
2.495167	0.10	2.828810	
2.496833	0.10	2.960280	
2.498500	0.10	3.079460	
2.500167	0.10	3.180580	
2.501833	0.10	3.259400	
2.503500	0.10	3.313970	
2.505167	0.10	3.344080	
2.506833	0.10	3.350270	
2.508500	0.10	3.333590	
2.510167	0.10	3.295080	
2.511833	0.10	3.234590	
2.513500	0.10	3.151280	
2.515167	0.10	3.045760	
2.516833	0.10	2.921400	
2.518500	0.10	2.784120	
2.520167	0.10	2.641560	
2.521833	0.10	2.501640	
2.523500	0.10	2.370880	
2.525167	0.10	2.252930	
2.526833	0.10	2.148320	
2.528500	0.10	2.055760	
2.530167	0.10	1.973800	
2.531833	0.10	1.901820	
2.533500	0.10	1.840370	
2.535167	0.10	1.790540	
2.536833	0.10	1.753000	
2.538500	0.10	1.727560	
2.540167	0.10	1.712930	
2.541833	0.10	1.705690	
2.543500	0.10	1.700430	
2.545167	0.10	1.692420	
2.546833	0.10	1.680260	
2.548500	0.10	1.666140	
2.550167	0.10	1.654070	
2.551833	0.10	1.646990	
2.553500	0.10	1.645010	
2.555167	0.10	1.645930	
2.556833	0.10	1.647240	
2.558500	0.10	1.647560	
2.560167	0.10	1.647020	
2.561833	0.10	1.646510	
2.563500	0.10	1.646900	
2.565167	0.10	1.648920	
2.566833	0.10	1.653230	
2.568500	0.10	1.659430	
2.570167	0.10	1.665670	
2.571833	0.10	1.670420	
2.573500	0.10	1.674240	
2.575167	0.10	1.678880	
2.576833	0.10	1.685400	
2.578500	0.10	1.693390	
2.580167	0.10	1.701080	
2.581833	0.10	1.706290	
2.583500	0.10	1.708080	
2.585167	0.10	1.707600	
2.586833	0.10	1.707200	
2.588500	0.10	1.708490	
2.590167	0.10	1.711860	
2.591833	0.10	1.717400	
2.593500	0.10	1.724690	
2.595167	0.10	1.732070	
2.596833	0.10	1.737340	
2.598500	0.10	1.739310	
2.600167	0.10	1.738780	
2.601833	0.10	1.738110	
2.603500	0.10	1.739780	
2.605167	0.10	1.745040	
2.606833	0.10	1.753410	
2.608500	0.10	1.763110	
2.610167	0.10	1.772220	
2.611833	0.10	1.779650	
2.613500	0.10	1.785960	
2.615167	0.10	1.793180	
2.616833	0.10	1.802890	
2.618500	0.10	1.814230	
2.620167	0.10	1.824510	
2.621833	0.10	1.831230	
2.623500	0.10	1.833510	
2.625167	0.10	1.831930	
2.626833	0.10	1.827740	
2.628500	0.10	1.822520	
2.630167	0.10	1.818350	
2.631833	0.10	1.817240	
2.633500	0.10	1.819880	
2.635167	0.10	1.825040	
2.636833	0.10	1.830500	
2.638500	0.10	1.835090	
2.640167	0.10	1.839540	
2.641833	0.10	1.845170	
2.643500	0.10	1.852190	
2.645167	0.10	1.859850	
2.646833	0.10	1.867740	
2.648500	0.10	1.876270	
2.650167	0.10	1.886250	
2.651833	0.10	1.898550	
2.653500	0.10	1.913880	
2.655167	0.10	1.931460	
2.656833	0.10	1.947750	
2.658500	0.10	1.958750	
2.660167	0.10	1.963780	
2.661833	0.10	1.965450	
2.663500	0.10	1.966670	
2.665167	0.10	1.968880	
2.666833	0.10	1.972080	
2.668500	0.10	1.974970	
2.670167	0.10	1.975830	
2.671833	0.10	1.973940	
2.673500	0.10	1.969800	
2.675167	0.10	1.964320	
2.676833	0.10	1.958870	
2.678500	0.10	1.955950	
2.680167	0.10	1.958090	
2.681833	0.10	1.965570	
2.683500	0.10	1.975790	
2.685167	0.10	1.985200	
2.686833	0.10	1.991610	
2.688500	0.10	1.995060	
2.690167	0.10	1.997380	
2.691833	0.10	2.000720	
2.693500	0.10	2.005760	
2.695167	0.10	2.011950	
2.696833	0.10	2.019250	
2.698500	0.10	2.028840	
2.700167	0.10	2.041430	
2.701833	0.10	2.055550	
2.703500	0.10	2.068530	
2.705167	0.10	2.079000	
2.706833	0.10	2.087520	
2.708500	0.10	2.094730	
2.710167	0.10	2.100370	
2.711833	0.10	2.104740	
2.713500	0.10	2.109520	
2.715167	0.10	2.116330	
2.716833	0.10	2.125670	
2.718500	0.10	2.137010	
2.720167	0.10	2.149360	
2.721833	0.10	2.161970	
2.723500	0.10	2.175310	
2.725167	0.10	2.190330	
2.726833	0.10	2.206600	
2.728500	0.10	2.222020	
2.730167	0.10	2.234270	
2.731833	0.10	2.242490	
2.733500	0.10	2.247830	
2.735167	0.10	2.252490	
2.736833	0.10	2.258150	
2.738500	0.10	2.265090	
2.740167	0.10	2.272530	
2.741833	0.10	2.279400	
2.743500	0.10	2.284890	
2.745167	0.10	2.288790	
2.746833	0.10	2.291580	
2.748500	0.10	2.294450	
2.750167	0.10	2.298580	
2.751833	0.10	2.303960	
2.753500	0.10	2.309400	
2.755167	0.10	2.313750	
2.756833	0.10	2.316470	
2.758500	0.10	2.317650	
2.760167	0.10	2.318350	
2.761833	0.10	2.320190	
2.763500	0.10	2.324130	
2.765167	0.10	2.329930	
2.766833	0.10	2.336390	
2.768500	0.10	2.342230	
2.770167	0.10	2.347560	
2.771833	0.10	2.354410	
2.773500	0.10	2.364810	
2.775167	0.10	2.378600	
2.776833	0.10	2.393770	
2.778500	0.10	2.408060	
2.780167	0.10	2.419720	
2.781833	0.10	2.428250	
2.783500	0.10	2.434940	
2.785167	0.10	2.441720	
2.786833	0.10	2.449080	
2.788500	0.10	2.455970	
2.790167	0.10	2.461490	
2.791833	0.10	2.465500	
2.793500	0.10	2.468110	
2.795167	0.10	2.469920	
2.796833	0.10	2.472220	
2.798500	0.10	2.475980	
2.800167	0.10	2.480880	
2.801833	0.10	2.485820	
2.803500	0.10	2.490120	
2.805167	0.10	2.494640	
2.806833	0.10	2.500660	
2.808500	0.10	2.508360	
2.810167	0.10	2.517460	
2.811833	0.10	2.528370	
2.813500	0.10	2.541370	
2.815167	0.10	2.554870	
2.816833	0.10	2.565600	
2.818500	0.10	2.571380	
2.820167	0.10	2.572650	
2.821833	0.10	2.570930	
2.823500	0.10	2.567500	
2.825167	0.10	2.563470	
2.826833	0.10	2.559960	
2.828500	0.10	2.558030	
2.830167	0.10	2.558500	
2.831833	0.10	2.561590	
2.833500	0.10	2.566600	
2.835167	0.10	2.572210	
2.836833	0.10	2.577130	
2.838500	0.10	2.580520	
2.840167	0.10	2.582300	
2.841833	0.10	2.583430	
2.843500	0.10	2.585080	
2.845167	0.10	2.587420	
2.846833	0.10	2.590060	
2.848500	0.10	2.593450	
2.850167	0.10	2.599230	
2.851833	0.10	2.609300	
2.853500	0.10	2.624390	
2.855167	0.10	2.642710	
2.856833	0.10	2.660250	
2.858500	0.10	2.673200	
2.860167	0.10	2.680540	
2.861833	0.10	2.684200	
2.863500	0.10	2.687070	
2.865167	0.10	2.690780	
2.866833	0.10	2.695120	
2.868500	0.10	2.699220	
2.870167	0.10	2.703130	
2.871833	0.10	2.707930	
2.873500	0.10	2.714670	
2.875167	0.10	2.723700	
2.876833	0.10	2.734340	
2.878500	0.10	2.744880	
2.880167	0.10	2.753450	
2.881833	0.10	2.759470	
2.883500	0.10	2.763490	
2.885167	0.10	2.766760	
2.886833	0.10	2.771650	
2.888500	0.10	2.780960	
2.890167	0.10	2.795240	
2.891833	0.10	2.811610	
2.893500	0.10	2.826370	
2.895167	0.10	2.837980	
2.896833	0.10	2.847390	
2.898500	0.10	2.855920	
2.900167	0.10	2.863660	
2.901833	0.10	2.869790	
2.903500	0.10	2.873610	
2.905167	0.10	2.875190	
2.906833	0.10	2.875340	
2.908500	0.10	2.874790	
2.910167	0.10	2.873920	
2.911833	0.10	2.873450	
2.913500	0.10	2.874270	
2.915167	0.10	2.876560	
2.916833	0.10	2.879940	
2.918500	0.10	2.884370	
2.920167	0.10	2.889950	
2.921833	0.10	2.896600	
2.923500	0.10	2.903400	
2.925167	0.10	2.908800	
2.926833	0.10	2.911510	
2.928500	0.10	2.911060	
2.930167	0.10	2.907180	
2.931833	0.10	2.899790	
2.933500	0.10	2.889610	
2.935167	0.10	2.878680	
2.936833	0.10	2.870110	
2.938500	0.10	2.866200	
2.940167	0.10	2.866650	
2.941833	0.10	2.868990	
2.943500	0.10	2.870750	
2.945167	0.10	2.871470	
2.946833	0.10	2.872730	
2.948500	0.10	2.876520	
2.950167	0.10	2.883590	
2.951833	0.10	2.892730	
2.953500	0.10	2.901570	
2.955167	0.10	2.908660	
2.956833	0.10	2.914180	
2.958500	0.10	2.918680	
2.960167	0.10	2.922250	
2.961833	0.10	2.924870	
2.963500	0.10	2.926540	
2.965167	0.10	2.927430	
2.966833	0.10	2.927980	
2.968500	0.10	2.928420	
2.970167	0.10	2.928130	
2.971833	0.10	2.926080	
2.973500	0.10	2.922080	
2.975167	0.10	2.917020	
2.976833	0.10	2.912290	
2.978500	0.10	2.908850	
2.980167	0.10	2.906240	
2.981833	0.10	2.903110	
2.983500	0.10	2.898550	
2.985167	0.10	2.892750	
2.986833	0.10	2.886960	
2.988500	0.10	2.883140	
2.990167	0.10	2.883050	
2.991833	0.10	2.887270	
2.993500	0.10	2.894850	
2.995167	0.10	2.904100	
2.996833	0.10	2.914390	
2.998500	0.10	2.928940	
3.000167	0.10	2.955770	
